Frequency  Raman intensity
  350.000  2.0049e-10
  351.000  2.0091e-10
  352.000  2.0133e-10
  353.000  2.0176e-10
  354.000  2.0218e-10
  355.000  2.0260e-10
  356.000  2.0303e-10
  357.000  2.0346e-10
  358.000  2.0389e-10
  359.000  2.0432e-10
  360.000  2.0475e-10
  361.000  2.0518e-10
  362.000  2.0562e-10
  363.000  2.0605e-10
  364.000  2.0649e-10
  365.000  2.0693e-10
  366.000  2.0737e-10
  367.000  2.0781e-10
  368.000  2.0825e-10
  369.000  2.0870e-10
  370.000  2.0914e-10
  371.000  2.0959e-10
  372.000  2.1004e-10
  373.000  2.1049e-10
  374.000  2.1094e-10
  375.000  2.1139e-10
  376.000  2.1185e-10
  377.000  2.1230e-10
  378.000  2.1276e-10
  379.000  2.1322e-10
  380.000  2.1368e-10
  381.000  2.1414e-10
  382.000  2.1460e-10
  383.000  2.1507e-10
  384.000  2.1553e-10
  385.000  2.1600e-10
  386.000  2.1647e-10
  387.000  2.1694e-10
  388.000  2.1741e-10
  389.000  2.1789e-10
  390.000  2.1836e-10
  391.000  2.1884e-10
  392.000  2.1932e-10
  393.000  2.1980e-10
  394.000  2.2028e-10
  395.000  2.2076e-10
  396.000  2.2125e-10
  397.000  2.2174e-10
  398.000  2.2222e-10
  399.000  2.2271e-10
  400.000  2.2320e-10
  401.000  2.2370e-10
  402.000  2.2419e-10
  403.000  2.2469e-10
  404.000  2.2519e-10
  405.000  2.2569e-10
  406.000  2.2619e-10
  407.000  2.2669e-10
  408.000  2.2719e-10
  409.000  2.2770e-10
  410.000  2.2821e-10
  411.000  2.2872e-10
  412.000  2.2923e-10
  413.000  2.2974e-10
  414.000  2.3026e-10
  415.000  2.3077e-10
  416.000  2.3129e-10
  417.000  2.3181e-10
  418.000  2.3233e-10
  419.000  2.3286e-10
  420.000  2.3338e-10
  421.000  2.3391e-10
  422.000  2.3444e-10
  423.000  2.3497e-10
  424.000  2.3550e-10
  425.000  2.3604e-10
  426.000  2.3657e-10
  427.000  2.3711e-10
  428.000  2.3765e-10
  429.000  2.3819e-10
  430.000  2.3873e-10
  431.000  2.3928e-10
  432.000  2.3983e-10
  433.000  2.4038e-10
  434.000  2.4093e-10
  435.000  2.4148e-10
  436.000  2.4203e-10
  437.000  2.4259e-10
  438.000  2.4315e-10
  439.000  2.4371e-10
  440.000  2.4427e-10
  441.000  2.4484e-10
  442.000  2.4540e-10
  443.000  2.4597e-10
  444.000  2.4654e-10
  445.000  2.4711e-10
  446.000  2.4769e-10
  447.000  2.4827e-10
  448.000  2.4884e-10
  449.000  2.4942e-10
  450.000  2.5001e-10
  451.000  2.5059e-10
  452.000  2.5118e-10
  453.000  2.5177e-10
  454.000  2.5236e-10
  455.000  2.5295e-10
  456.000  2.5354e-10
  457.000  2.5414e-10
  458.000  2.5474e-10
  459.000  2.5534e-10
  460.000  2.5594e-10
  461.000  2.5655e-10
  462.000  2.5716e-10
  463.000  2.5777e-10
  464.000  2.5838e-10
  465.000  2.5899e-10
  466.000  2.5961e-10
  467.000  2.6023e-10
  468.000  2.6085e-10
  469.000  2.6147e-10
  470.000  2.6209e-10
  471.000  2.6272e-10
  472.000  2.6335e-10
  473.000  2.6398e-10
  474.000  2.6462e-10
  475.000  2.6525e-10
  476.000  2.6589e-10
  477.000  2.6653e-10
  478.000  2.6718e-10
  479.000  2.6782e-10
  480.000  2.6847e-10
  481.000  2.6912e-10
  482.000  2.6977e-10
  483.000  2.7043e-10
  484.000  2.7109e-10
  485.000  2.7175e-10
  486.000  2.7241e-10
  487.000  2.7307e-10
  488.000  2.7374e-10
  489.000  2.7441e-10
  490.000  2.7508e-10
  491.000  2.7576e-10
  492.000  2.7643e-10
  493.000  2.7711e-10
  494.000  2.7780e-10
  495.000  2.7848e-10
  496.000  2.7917e-10
  497.000  2.7986e-10
  498.000  2.8055e-10
  499.000  2.8124e-10
  500.000  2.8194e-10
  501.000  2.8264e-10
  502.000  2.8334e-10
  503.000  2.8405e-10
  504.000  2.8476e-10
  505.000  2.8547e-10
  506.000  2.8618e-10
  507.000  2.8690e-10
  508.000  2.8761e-10
  509.000  2.8834e-10
  510.000  2.8906e-10
  511.000  2.8979e-10
  512.000  2.9052e-10
  513.000  2.9125e-10
  514.000  2.9198e-10
  515.000  2.9272e-10
  516.000  2.9346e-10
  517.000  2.9420e-10
  518.000  2.9495e-10
  519.000  2.9570e-10
  520.000  2.9645e-10
  521.000  2.9721e-10
  522.000  2.9796e-10
  523.000  2.9872e-10
  524.000  2.9949e-10
  525.000  3.0025e-10
  526.000  3.0102e-10
  527.000  3.0179e-10
  528.000  3.0257e-10
  529.000  3.0335e-10
  530.000  3.0413e-10
  531.000  3.0491e-10
  532.000  3.0570e-10
  533.000  3.0649e-10
  534.000  3.0728e-10
  535.000  3.0808e-10
  536.000  3.0888e-10
  537.000  3.0968e-10
  538.000  3.1049e-10
  539.000  3.1130e-10
  540.000  3.1211e-10
  541.000  3.1292e-10
  542.000  3.1374e-10
  543.000  3.1457e-10
  544.000  3.1539e-10
  545.000  3.1622e-10
  546.000  3.1705e-10
  547.000  3.1788e-10
  548.000  3.1872e-10
  549.000  3.1956e-10
  550.000  3.2041e-10
  551.000  3.2126e-10
  552.000  3.2211e-10
  553.000  3.2296e-10
  554.000  3.2382e-10
  555.000  3.2468e-10
  556.000  3.2555e-10
  557.000  3.2642e-10
  558.000  3.2729e-10
  559.000  3.2816e-10
  560.000  3.2904e-10
  561.000  3.2993e-10
  562.000  3.3081e-10
  563.000  3.3170e-10
  564.000  3.3259e-10
  565.000  3.3349e-10
  566.000  3.3439e-10
  567.000  3.3530e-10
  568.000  3.3620e-10
  569.000  3.3712e-10
  570.000  3.3803e-10
  571.000  3.3895e-10
  572.000  3.3987e-10
  573.000  3.4080e-10
  574.000  3.4173e-10
  575.000  3.4266e-10
  576.000  3.4360e-10
  577.000  3.4454e-10
  578.000  3.4549e-10
  579.000  3.4644e-10
  580.000  3.4739e-10
  581.000  3.4835e-10
  582.000  3.4931e-10
  583.000  3.5028e-10
  584.000  3.5125e-10
  585.000  3.5222e-10
  586.000  3.5320e-10
  587.000  3.5418e-10
  588.000  3.5517e-10
  589.000  3.5615e-10
  590.000  3.5715e-10
  591.000  3.5815e-10
  592.000  3.5915e-10
  593.000  3.6016e-10
  594.000  3.6117e-10
  595.000  3.6218e-10
  596.000  3.6320e-10
  597.000  3.6422e-10
  598.000  3.6525e-10
  599.000  3.6628e-10
  600.000  3.6732e-10
  601.000  3.6836e-10
  602.000  3.6941e-10
  603.000  3.7046e-10
  604.000  3.7151e-10
  605.000  3.7257e-10
  606.000  3.7364e-10
  607.000  3.7470e-10
  608.000  3.7578e-10
  609.000  3.7685e-10
  610.000  3.7794e-10
  611.000  3.7902e-10
  612.000  3.8011e-10
  613.000  3.8121e-10
  614.000  3.8231e-10
  615.000  3.8342e-10
  616.000  3.8453e-10
  617.000  3.8564e-10
  618.000  3.8676e-10
  619.000  3.8789e-10
  620.000  3.8902e-10
  621.000  3.9015e-10
  622.000  3.9129e-10
  623.000  3.9243e-10
  624.000  3.9358e-10
  625.000  3.9474e-10
  626.000  3.9590e-10
  627.000  3.9706e-10
  628.000  3.9823e-10
  629.000  3.9941e-10
  630.000  4.0059e-10
  631.000  4.0178e-10
  632.000  4.0297e-10
  633.000  4.0416e-10
  634.000  4.0537e-10
  635.000  4.0657e-10
  636.000  4.0778e-10
  637.000  4.0900e-10
  638.000  4.1023e-10
  639.000  4.1145e-10
  640.000  4.1269e-10
  641.000  4.1393e-10
  642.000  4.1517e-10
  643.000  4.1643e-10
  644.000  4.1768e-10
  645.000  4.1895e-10
  646.000  4.2021e-10
  647.000  4.2149e-10
  648.000  4.2277e-10
  649.000  4.2405e-10
  650.000  4.2534e-10
  651.000  4.2664e-10
  652.000  4.2795e-10
  653.000  4.2926e-10
  654.000  4.3057e-10
  655.000  4.3189e-10
  656.000  4.3322e-10
  657.000  4.3455e-10
  658.000  4.3589e-10
  659.000  4.3724e-10
  660.000  4.3859e-10
  661.000  4.3995e-10
  662.000  4.4131e-10
  663.000  4.4269e-10
  664.000  4.4406e-10
  665.000  4.4545e-10
  666.000  4.4684e-10
  667.000  4.4824e-10
  668.000  4.4964e-10
  669.000  4.5105e-10
  670.000  4.5247e-10
  671.000  4.5389e-10
  672.000  4.5532e-10
  673.000  4.5676e-10
  674.000  4.5820e-10
  675.000  4.5965e-10
  676.000  4.6111e-10
  677.000  4.6257e-10
  678.000  4.6405e-10
  679.000  4.6553e-10
  680.000  4.6701e-10
  681.000  4.6850e-10
  682.000  4.7000e-10
  683.000  4.7151e-10
  684.000  4.7303e-10
  685.000  4.7455e-10
  686.000  4.7608e-10
  687.000  4.7761e-10
  688.000  4.7916e-10
  689.000  4.8071e-10
  690.000  4.8227e-10
  691.000  4.8383e-10
  692.000  4.8541e-10
  693.000  4.8699e-10
  694.000  4.8858e-10
  695.000  4.9018e-10
  696.000  4.9178e-10
  697.000  4.9340e-10
  698.000  4.9502e-10
  699.000  4.9665e-10
  700.000  4.9828e-10
  701.000  4.9993e-10
  702.000  5.0158e-10
  703.000  5.0325e-10
  704.000  5.0492e-10
  705.000  5.0659e-10
  706.000  5.0828e-10
  707.000  5.0998e-10
  708.000  5.1168e-10
  709.000  5.1339e-10
  710.000  5.1511e-10
  711.000  5.1684e-10
  712.000  5.1858e-10
  713.000  5.2033e-10
  714.000  5.2208e-10
  715.000  5.2385e-10
  716.000  5.2562e-10
  717.000  5.2740e-10
  718.000  5.2920e-10
  719.000  5.3100e-10
  720.000  5.3281e-10
  721.000  5.3463e-10
  722.000  5.3646e-10
  723.000  5.3829e-10
  724.000  5.4014e-10
  725.000  5.4200e-10
  726.000  5.4387e-10
  727.000  5.4574e-10
  728.000  5.4763e-10
  729.000  5.4952e-10
  730.000  5.5143e-10
  731.000  5.5335e-10
  732.000  5.5527e-10
  733.000  5.5721e-10
  734.000  5.5915e-10
  735.000  5.6111e-10
  736.000  5.6308e-10
  737.000  5.6505e-10
  738.000  5.6704e-10
  739.000  5.6904e-10
  740.000  5.7105e-10
  741.000  5.7307e-10
  742.000  5.7510e-10
  743.000  5.7714e-10
  744.000  5.7919e-10
  745.000  5.8125e-10
  746.000  5.8332e-10
  747.000  5.8541e-10
  748.000  5.8750e-10
  749.000  5.8961e-10
  750.000  5.9173e-10
  751.000  5.9386e-10
  752.000  5.9600e-10
  753.000  5.9815e-10
  754.000  6.0032e-10
  755.000  6.0249e-10
  756.000  6.0468e-10
  757.000  6.0688e-10
  758.000  6.0909e-10
  759.000  6.1132e-10
  760.000  6.1356e-10
  761.000  6.1580e-10
  762.000  6.1807e-10
  763.000  6.2034e-10
  764.000  6.2262e-10
  765.000  6.2492e-10
  766.000  6.2724e-10
  767.000  6.2956e-10
  768.000  6.3190e-10
  769.000  6.3425e-10
  770.000  6.3661e-10
  771.000  6.3899e-10
  772.000  6.4138e-10
  773.000  6.4378e-10
  774.000  6.4620e-10
  775.000  6.4863e-10
  776.000  6.5107e-10
  777.000  6.5353e-10
  778.000  6.5600e-10
  779.000  6.5849e-10
  780.000  6.6099e-10
  781.000  6.6351e-10
  782.000  6.6604e-10
  783.000  6.6858e-10
  784.000  6.7114e-10
  785.000  6.7371e-10
  786.000  6.7630e-10
  787.000  6.7890e-10
  788.000  6.8152e-10
  789.000  6.8415e-10
  790.000  6.8680e-10
  791.000  6.8946e-10
  792.000  6.9214e-10
  793.000  6.9484e-10
  794.000  6.9755e-10
  795.000  7.0027e-10
  796.000  7.0302e-10
  797.000  7.0578e-10
  798.000  7.0855e-10
  799.000  7.1134e-10
  800.000  7.1415e-10
  801.000  7.1697e-10
  802.000  7.1981e-10
  803.000  7.2267e-10
  804.000  7.2555e-10
  805.000  7.2844e-10
  806.000  7.3135e-10
  807.000  7.3428e-10
  808.000  7.3722e-10
  809.000  7.4018e-10
  810.000  7.4317e-10
  811.000  7.4616e-10
  812.000  7.4918e-10
  813.000  7.5222e-10
  814.000  7.5527e-10
  815.000  7.5834e-10
  816.000  7.6143e-10
  817.000  7.6454e-10
  818.000  7.6767e-10
  819.000  7.7082e-10
  820.000  7.7399e-10
  821.000  7.7717e-10
  822.000  7.8038e-10
  823.000  7.8361e-10
  824.000  7.8685e-10
  825.000  7.9012e-10
  826.000  7.9341e-10
  827.000  7.9672e-10
  828.000  8.0004e-10
  829.000  8.0339e-10
  830.000  8.0676e-10
  831.000  8.1016e-10
  832.000  8.1357e-10
  833.000  8.1700e-10
  834.000  8.2046e-10
  835.000  8.2394e-10
  836.000  8.2744e-10
  837.000  8.3096e-10
  838.000  8.3451e-10
  839.000  8.3808e-10
  840.000  8.4167e-10
  841.000  8.4528e-10
  842.000  8.4892e-10
  843.000  8.5258e-10
  844.000  8.5627e-10
  845.000  8.5998e-10
  846.000  8.6371e-10
  847.000  8.6747e-10
  848.000  8.7125e-10
  849.000  8.7506e-10
  850.000  8.7889e-10
  851.000  8.8275e-10
  852.000  8.8663e-10
  853.000  8.9054e-10
  854.000  8.9447e-10
  855.000  8.9843e-10
  856.000  9.0242e-10
  857.000  9.0643e-10
  858.000  9.1047e-10
  859.000  9.1454e-10
  860.000  9.1863e-10
  861.000  9.2276e-10
  862.000  9.2691e-10
  863.000  9.3108e-10
  864.000  9.3529e-10
  865.000  9.3952e-10
  866.000  9.4379e-10
  867.000  9.4808e-10
  868.000  9.5240e-10
  869.000  9.5675e-10
  870.000  9.6114e-10
  871.000  9.6555e-10
  872.000  9.6999e-10
  873.000  9.7446e-10
  874.000  9.7897e-10
  875.000  9.8350e-10
  876.000  9.8807e-10
  877.000  9.9267e-10
  878.000  9.9730e-10
  879.000  1.0020e-09
  880.000  1.0067e-09
  881.000  1.0114e-09
  882.000  1.0161e-09
  883.000  1.0209e-09
  884.000  1.0258e-09
  885.000  1.0306e-09
  886.000  1.0355e-09
  887.000  1.0405e-09
  888.000  1.0454e-09
  889.000  1.0504e-09
  890.000  1.0555e-09
  891.000  1.0606e-09
  892.000  1.0657e-09
  893.000  1.0708e-09
  894.000  1.0760e-09
  895.000  1.0812e-09
  896.000  1.0865e-09
  897.000  1.0918e-09
  898.000  1.0972e-09
  899.000  1.1025e-09
  900.000  1.1080e-09
  901.000  1.1134e-09
  902.000  1.1189e-09
  903.000  1.1245e-09
  904.000  1.1301e-09
  905.000  1.1357e-09
  906.000  1.1413e-09
  907.000  1.1471e-09
  908.000  1.1528e-09
  909.000  1.1586e-09
  910.000  1.1644e-09
  911.000  1.1703e-09
  912.000  1.1763e-09
  913.000  1.1822e-09
  914.000  1.1883e-09
  915.000  1.1943e-09
  916.000  1.2004e-09
  917.000  1.2066e-09
  918.000  1.2128e-09
  919.000  1.2191e-09
  920.000  1.2254e-09
  921.000  1.2317e-09
  922.000  1.2381e-09
  923.000  1.2446e-09
  924.000  1.2511e-09
  925.000  1.2576e-09
  926.000  1.2642e-09
  927.000  1.2709e-09
  928.000  1.2776e-09
  929.000  1.2844e-09
  930.000  1.2912e-09
  931.000  1.2981e-09
  932.000  1.3050e-09
  933.000  1.3120e-09
  934.000  1.3190e-09
  935.000  1.3261e-09
  936.000  1.3333e-09
  937.000  1.3405e-09
  938.000  1.3477e-09
  939.000  1.3551e-09
  940.000  1.3625e-09
  941.000  1.3699e-09
  942.000  1.3774e-09
  943.000  1.3850e-09
  944.000  1.3926e-09
  945.000  1.4003e-09
  946.000  1.4081e-09
  947.000  1.4159e-09
  948.000  1.4238e-09
  949.000  1.4318e-09
  950.000  1.4398e-09
  951.000  1.4479e-09
  952.000  1.4560e-09
  953.000  1.4643e-09
  954.000  1.4726e-09
  955.000  1.4810e-09
  956.000  1.4894e-09
  957.000  1.4979e-09
  958.000  1.5065e-09
  959.000  1.5152e-09
  960.000  1.5239e-09
  961.000  1.5327e-09
  962.000  1.5416e-09
  963.000  1.5506e-09
  964.000  1.5596e-09
  965.000  1.5687e-09
  966.000  1.5780e-09
  967.000  1.5872e-09
  968.000  1.5966e-09
  969.000  1.6061e-09
  970.000  1.6156e-09
  971.000  1.6252e-09
  972.000  1.6349e-09
  973.000  1.6447e-09
  974.000  1.6546e-09
  975.000  1.6646e-09
  976.000  1.6747e-09
  977.000  1.6848e-09
  978.000  1.6951e-09
  979.000  1.7054e-09
  980.000  1.7158e-09
  981.000  1.7264e-09
  982.000  1.7370e-09
  983.000  1.7477e-09
  984.000  1.7586e-09
  985.000  1.7695e-09
  986.000  1.7805e-09
  987.000  1.7917e-09
  988.000  1.8029e-09
  989.000  1.8142e-09
  990.000  1.8257e-09
  991.000  1.8373e-09
  992.000  1.8489e-09
  993.000  1.8607e-09
  994.000  1.8726e-09
  995.000  1.8846e-09
  996.000  1.8967e-09
  997.000  1.9090e-09
  998.000  1.9213e-09
  999.000  1.9338e-09
 1000.000  1.9464e-09
 1001.000  1.9592e-09
 1002.000  1.9720e-09
 1003.000  1.9850e-09
 1004.000  1.9981e-09
 1005.000  2.0114e-09
 1006.000  2.0247e-09
 1007.000  2.0382e-09
 1008.000  2.0519e-09
 1009.000  2.0657e-09
 1010.000  2.0796e-09
 1011.000  2.0936e-09
 1012.000  2.1078e-09
 1013.000  2.1222e-09
 1014.000  2.1367e-09
 1015.000  2.1513e-09
 1016.000  2.1661e-09
 1017.000  2.1811e-09
 1018.000  2.1962e-09
 1019.000  2.2114e-09
 1020.000  2.2268e-09
 1021.000  2.2424e-09
 1022.000  2.2582e-09
 1023.000  2.2741e-09
 1024.000  2.2901e-09
 1025.000  2.3064e-09
 1026.000  2.3228e-09
 1027.000  2.3394e-09
 1028.000  2.3562e-09
 1029.000  2.3732e-09
 1030.000  2.3903e-09
 1031.000  2.4076e-09
 1032.000  2.4252e-09
 1033.000  2.4429e-09
 1034.000  2.4608e-09
 1035.000  2.4789e-09
 1036.000  2.4972e-09
 1037.000  2.5157e-09
 1038.000  2.5344e-09
 1039.000  2.5533e-09
 1040.000  2.5725e-09
 1041.000  2.5918e-09
 1042.000  2.6114e-09
 1043.000  2.6312e-09
 1044.000  2.6512e-09
 1045.000  2.6714e-09
 1046.000  2.6919e-09
 1047.000  2.7126e-09
 1048.000  2.7336e-09
 1049.000  2.7548e-09
 1050.000  2.7762e-09
 1051.000  2.7979e-09
 1052.000  2.8199e-09
 1053.000  2.8421e-09
 1054.000  2.8646e-09
 1055.000  2.8873e-09
 1056.000  2.9103e-09
 1057.000  2.9336e-09
 1058.000  2.9572e-09
 1059.000  2.9811e-09
 1060.000  3.0052e-09
 1061.000  3.0297e-09
 1062.000  3.0544e-09
 1063.000  3.0794e-09
 1064.000  3.1048e-09
 1065.000  3.1305e-09
 1066.000  3.1565e-09
 1067.000  3.1828e-09
 1068.000  3.2094e-09
 1069.000  3.2364e-09
 1070.000  3.2637e-09
 1071.000  3.2914e-09
 1072.000  3.3194e-09
 1073.000  3.3478e-09
 1074.000  3.3765e-09
 1075.000  3.4056e-09
 1076.000  3.4351e-09
 1077.000  3.4650e-09
 1078.000  3.4953e-09
 1079.000  3.5260e-09
 1080.000  3.5570e-09
 1081.000  3.5885e-09
 1082.000  3.6204e-09
 1083.000  3.6528e-09
 1084.000  3.6855e-09
 1085.000  3.7187e-09
 1086.000  3.7524e-09
 1087.000  3.7865e-09
 1088.000  3.8211e-09
 1089.000  3.8562e-09
 1090.000  3.8917e-09
 1091.000  3.9278e-09
 1092.000  3.9643e-09
 1093.000  4.0014e-09
 1094.000  4.0389e-09
 1095.000  4.0770e-09
 1096.000  4.1157e-09
 1097.000  4.1549e-09
 1098.000  4.1947e-09
 1099.000  4.2350e-09
 1100.000  4.2759e-09
 1101.000  4.3174e-09
 1102.000  4.3596e-09
 1103.000  4.4023e-09
 1104.000  4.4457e-09
 1105.000  4.4897e-09
 1106.000  4.5344e-09
 1107.000  4.5797e-09
 1108.000  4.6257e-09
 1109.000  4.6725e-09
 1110.000  4.7199e-09
 1111.000  4.7681e-09
 1112.000  4.8170e-09
 1113.000  4.8666e-09
 1114.000  4.9171e-09
 1115.000  4.9683e-09
 1116.000  5.0203e-09
 1117.000  5.0731e-09
 1118.000  5.1268e-09
 1119.000  5.1813e-09
 1120.000  5.2367e-09
 1121.000  5.2930e-09
 1122.000  5.3502e-09
 1123.000  5.4084e-09
 1124.000  5.4675e-09
 1125.000  5.5276e-09
 1126.000  5.5886e-09
 1127.000  5.6507e-09
 1128.000  5.7138e-09
 1129.000  5.7780e-09
 1130.000  5.8433e-09
 1131.000  5.9096e-09
 1132.000  5.9771e-09
 1133.000  6.0458e-09
 1134.000  6.1157e-09
 1135.000  6.1868e-09
 1136.000  6.2591e-09
 1137.000  6.3327e-09
 1138.000  6.4076e-09
 1139.000  6.4838e-09
 1140.000  6.5614e-09
 1141.000  6.6404e-09
 1142.000  6.7209e-09
 1143.000  6.8028e-09
 1144.000  6.8862e-09
 1145.000  6.9712e-09
 1146.000  7.0577e-09
 1147.000  7.1459e-09
 1148.000  7.2357e-09
 1149.000  7.3272e-09
 1150.000  7.4204e-09
 1151.000  7.5155e-09
 1152.000  7.6124e-09
 1153.000  7.7111e-09
 1154.000  7.8118e-09
 1155.000  7.9145e-09
 1156.000  8.0193e-09
 1157.000  8.1261e-09
 1158.000  8.2350e-09
 1159.000  8.3462e-09
 1160.000  8.4596e-09
 1161.000  8.5753e-09
 1162.000  8.6935e-09
 1163.000  8.8140e-09
 1164.000  8.9371e-09
 1165.000  9.0628e-09
 1166.000  9.1912e-09
 1167.000  9.3223e-09
 1168.000  9.4562e-09
 1169.000  9.5931e-09
 1170.000  9.7329e-09
 1171.000  9.8758e-09
 1172.000  1.0022e-08
 1173.000  1.0171e-08
 1174.000  1.0324e-08
 1175.000  1.0480e-08
 1176.000  1.0640e-08
 1177.000  1.0803e-08
 1178.000  1.0970e-08
 1179.000  1.1141e-08
 1180.000  1.1316e-08
 1181.000  1.1495e-08
 1182.000  1.1679e-08
 1183.000  1.1867e-08
 1184.000  1.2059e-08
 1185.000  1.2256e-08
 1186.000  1.2459e-08
 1187.000  1.2666e-08
 1188.000  1.2878e-08
 1189.000  1.3095e-08
 1190.000  1.3319e-08
 1191.000  1.3548e-08
 1192.000  1.3782e-08
 1193.000  1.4023e-08
 1194.000  1.4271e-08
 1195.000  1.4525e-08
 1196.000  1.4786e-08
 1197.000  1.5053e-08
 1198.000  1.5329e-08
 1199.000  1.5611e-08
 1200.000  1.5902e-08
 1201.000  1.6201e-08
 1202.000  1.6508e-08
 1203.000  1.6824e-08
 1204.000  1.7149e-08
 1205.000  1.7484e-08
 1206.000  1.7829e-08
 1207.000  1.8183e-08
 1208.000  1.8549e-08
 1209.000  1.8926e-08
 1210.000  1.9314e-08
 1211.000  1.9714e-08
 1212.000  2.0126e-08
 1213.000  2.0552e-08
 1214.000  2.0991e-08
 1215.000  2.1445e-08
 1216.000  2.1913e-08
 1217.000  2.2397e-08
 1218.000  2.2897e-08
 1219.000  2.3413e-08
 1220.000  2.3948e-08
 1221.000  2.4500e-08
 1222.000  2.5072e-08
 1223.000  2.5665e-08
 1224.000  2.6278e-08
 1225.000  2.6913e-08
 1226.000  2.7572e-08
 1227.000  2.8255e-08
 1228.000  2.8963e-08
 1229.000  2.9699e-08
 1230.000  3.0462e-08
 1231.000  3.1255e-08
 1232.000  3.2080e-08
 1233.000  3.2937e-08
 1234.000  3.3829e-08
 1235.000  3.4757e-08
 1236.000  3.5724e-08
 1237.000  3.6732e-08
 1238.000  3.7782e-08
 1239.000  3.8878e-08
 1240.000  4.0022e-08
 1241.000  4.1216e-08
 1242.000  4.2465e-08
 1243.000  4.3770e-08
 1244.000  4.5137e-08
 1245.000  4.6567e-08
 1246.000  4.8066e-08
 1247.000  4.9638e-08
 1248.000  5.1288e-08
 1249.000  5.3020e-08
 1250.000  5.4841e-08
 1251.000  5.6756e-08
 1252.000  5.8772e-08
 1253.000  6.0896e-08
 1254.000  6.3137e-08
 1255.000  6.5501e-08
 1256.000  6.7999e-08
 1257.000  7.0641e-08
 1258.000  7.3437e-08
 1259.000  7.6400e-08
 1260.000  7.9544e-08
 1261.000  8.2882e-08
 1262.000  8.6432e-08
 1263.000  9.0211e-08
 1264.000  9.4238e-08
 1265.000  9.8535e-08
 1266.000  1.0313e-07
 1267.000  1.0804e-07
 1268.000  1.1331e-07
 1269.000  1.1896e-07
 1270.000  1.2503e-07
 1271.000  1.3157e-07
 1272.000  1.3862e-07
 1273.000  1.4624e-07
 1274.000  1.5448e-07
 1275.000  1.6341e-07
 1276.000  1.7312e-07
 1277.000  1.8368e-07
 1278.000  1.9520e-07
 1279.000  2.0779e-07
 1280.000  2.2157e-07
 1281.000  2.3671e-07
 1282.000  2.5336e-07
 1283.000  2.7173e-07
 1284.000  2.9203e-07
 1285.000  3.1454e-07
 1286.000  3.3954e-07
 1287.000  3.6739e-07
 1288.000  3.9847e-07
 1289.000  4.3325e-07
 1290.000  4.7223e-07
 1291.000  5.1601e-07
 1292.000  5.6523e-07
 1293.000  6.2062e-07
 1294.000  6.8291e-07
 1295.000  7.5289e-07
 1296.000  8.3125e-07
 1297.000  9.1853e-07
 1298.000  1.0149e-06
 1299.000  1.1202e-06
 1300.000  1.2329e-06
 1301.000  1.3507e-06
 1302.000  1.4695e-06
 1303.000  1.5835e-06
 1304.000  1.6851e-06
 1305.000  1.7660e-06
 1306.000  1.8183e-06
 1307.000  1.8364e-06
 1308.000  1.8181e-06
 1309.000  1.7655e-06
 1310.000  1.6844e-06
 1311.000  1.5827e-06
 1312.000  1.4687e-06
 1313.000  1.3499e-06
 1314.000  1.2321e-06
 1315.000  1.1194e-06
 1316.000  1.0142e-06
 1317.000  9.1787e-07
 1318.000  8.3065e-07
 1319.000  7.5236e-07
 1320.000  6.8244e-07
 1321.000  6.2019e-07
 1322.000  5.6486e-07
 1323.000  5.1568e-07
 1324.000  4.7193e-07
 1325.000  4.3298e-07
 1326.000  3.9823e-07
 1327.000  3.6717e-07
 1328.000  3.3935e-07
 1329.000  3.1437e-07
 1330.000  2.9188e-07
 1331.000  2.7159e-07
 1332.000  2.5323e-07
 1333.000  2.3659e-07
 1334.000  2.2147e-07
 1335.000  2.0769e-07
 1336.000  1.9511e-07
 1337.000  1.8360e-07
 1338.000  1.7305e-07
 1339.000  1.6335e-07
 1340.000  1.5442e-07
 1341.000  1.4618e-07
 1342.000  1.3857e-07
 1343.000  1.3152e-07
 1344.000  1.2499e-07
 1345.000  1.1892e-07
 1346.000  1.1327e-07
 1347.000  1.0801e-07
 1348.000  1.0309e-07
 1349.000  9.8503e-08
 1350.000  9.4208e-08
 1351.000  9.0182e-08
 1352.000  8.6406e-08
 1353.000  8.2858e-08
 1354.000  7.9521e-08
 1355.000  7.6378e-08
 1356.000  7.3416e-08
 1357.000  7.0621e-08
 1358.000  6.7980e-08
 1359.000  6.5483e-08
 1360.000  6.3120e-08
 1361.000  6.0881e-08
 1362.000  5.8757e-08
 1363.000  5.6742e-08
 1364.000  5.4828e-08
 1365.000  5.3008e-08
 1366.000  5.1276e-08
 1367.000  4.9627e-08
 1368.000  4.8055e-08
 1369.000  4.6557e-08
 1370.000  4.5126e-08
 1371.000  4.3761e-08
 1372.000  4.2456e-08
 1373.000  4.1207e-08
 1374.000  4.0013e-08
 1375.000  3.8870e-08
 1376.000  3.7774e-08
 1377.000  3.6724e-08
 1378.000  3.5717e-08
 1379.000  3.4751e-08
 1380.000  3.3823e-08
 1381.000  3.2931e-08
 1382.000  3.2074e-08
 1383.000  3.1250e-08
 1384.000  3.0457e-08
 1385.000  2.9693e-08
 1386.000  2.8958e-08
 1387.000  2.8250e-08
 1388.000  2.7567e-08
 1389.000  2.6909e-08
 1390.000  2.6273e-08
 1391.000  2.5660e-08
 1392.000  2.5068e-08
 1393.000  2.4496e-08
 1394.000  2.3944e-08
 1395.000  2.3410e-08
 1396.000  2.2893e-08
 1397.000  2.2393e-08
 1398.000  2.1910e-08
 1399.000  2.1442e-08
 1400.000  2.0988e-08
 1401.000  2.0549e-08
 1402.000  2.0123e-08
 1403.000  1.9711e-08
 1404.000  1.9311e-08
 1405.000  1.8923e-08
 1406.000  1.8546e-08
 1407.000  1.8181e-08
 1408.000  1.7826e-08
 1409.000  1.7482e-08
 1410.000  1.7147e-08
 1411.000  1.6822e-08
 1412.000  1.6506e-08
 1413.000  1.6199e-08
 1414.000  1.5900e-08
 1415.000  1.5609e-08
 1416.000  1.5327e-08
 1417.000  1.5051e-08
 1418.000  1.4784e-08
 1419.000  1.4523e-08
 1420.000  1.4269e-08
 1421.000  1.4022e-08
 1422.000  1.3781e-08
 1423.000  1.3546e-08
 1424.000  1.3317e-08
 1425.000  1.3094e-08
 1426.000  1.2876e-08
 1427.000  1.2664e-08
 1428.000  1.2457e-08
 1429.000  1.2255e-08
 1430.000  1.2058e-08
 1431.000  1.1865e-08
 1432.000  1.1678e-08
 1433.000  1.1494e-08
 1434.000  1.1315e-08
 1435.000  1.1140e-08
 1436.000  1.0969e-08
 1437.000  1.0802e-08
 1438.000  1.0638e-08
 1439.000  1.0479e-08
 1440.000  1.0323e-08
 1441.000  1.0170e-08
 1442.000  1.0021e-08
 1443.000  9.8747e-09
 1444.000  9.7319e-09
 1445.000  9.5921e-09
 1446.000  9.4553e-09
 1447.000  9.3214e-09
 1448.000  9.1903e-09
 1449.000  9.0619e-09
 1450.000  8.9362e-09
 1451.000  8.8132e-09
 1452.000  8.6926e-09
 1453.000  8.5745e-09
 1454.000  8.4588e-09
 1455.000  8.3454e-09
 1456.000  8.2342e-09
 1457.000  8.1253e-09
 1458.000  8.0185e-09
 1459.000  7.9138e-09
 1460.000  7.8111e-09
 1461.000  7.7104e-09
 1462.000  7.6117e-09
 1463.000  7.5148e-09
 1464.000  7.4198e-09
 1465.000  7.3265e-09
 1466.000  7.2350e-09
 1467.000  7.1452e-09
 1468.000  7.0571e-09
 1469.000  6.9705e-09
 1470.000  6.8856e-09
 1471.000  6.8022e-09
 1472.000  6.7203e-09
 1473.000  6.6399e-09
 1474.000  6.5609e-09
 1475.000  6.4833e-09
 1476.000  6.4070e-09
 1477.000  6.3322e-09
 1478.000  6.2586e-09
 1479.000  6.1862e-09
 1480.000  6.1152e-09
 1481.000  6.0453e-09
 1482.000  5.9767e-09
 1483.000  5.9091e-09
 1484.000  5.8428e-09
 1485.000  5.7775e-09
 1486.000  5.7133e-09
 1487.000  5.6502e-09
 1488.000  5.5882e-09
 1489.000  5.5271e-09
 1490.000  5.4671e-09
 1491.000  5.4080e-09
 1492.000  5.3498e-09
 1493.000  5.2926e-09
 1494.000  5.2363e-09
 1495.000  5.1809e-09
 1496.000  5.1264e-09
 1497.000  5.0727e-09
 1498.000  5.0199e-09
 1499.000  4.9679e-09
 1500.000  4.9167e-09
 1501.000  4.8663e-09
 1502.000  4.8166e-09
 1503.000  4.7677e-09
 1504.000  4.7196e-09
 1505.000  4.6721e-09
 1506.000  4.6254e-09
 1507.000  4.5794e-09
 1508.000  4.5341e-09
 1509.000  4.4894e-09
 1510.000  4.4454e-09
 1511.000  4.4020e-09
 1512.000  4.3593e-09
 1513.000  4.3171e-09
 1514.000  4.2756e-09
 1515.000  4.2347e-09
 1516.000  4.1944e-09
 1517.000  4.1546e-09
 1518.000  4.1154e-09
 1519.000  4.0768e-09
 1520.000  4.0387e-09
 1521.000  4.0011e-09
 1522.000  3.9640e-09
 1523.000  3.9275e-09
 1524.000  3.8915e-09
 1525.000  3.8559e-09
 1526.000  3.8209e-09
 1527.000  3.7863e-09
 1528.000  3.7522e-09
 1529.000  3.7185e-09
 1530.000  3.6853e-09
 1531.000  3.6525e-09
 1532.000  3.6202e-09
 1533.000  3.5883e-09
 1534.000  3.5568e-09
 1535.000  3.5257e-09
 1536.000  3.4951e-09
 1537.000  3.4648e-09
 1538.000  3.4349e-09
 1539.000  3.4054e-09
 1540.000  3.3763e-09
 1541.000  3.3476e-09
 1542.000  3.3192e-09
 1543.000  3.2912e-09
 1544.000  3.2635e-09
 1545.000  3.2362e-09
 1546.000  3.2092e-09
 1547.000  3.1826e-09
 1548.000  3.1563e-09
 1549.000  3.1303e-09
 1550.000  3.1046e-09
 1551.000  3.0793e-09
 1552.000  3.0542e-09
 1553.000  3.0295e-09
 1554.000  3.0050e-09
 1555.000  2.9809e-09
 1556.000  2.9570e-09
 1557.000  2.9335e-09
 1558.000  2.9102e-09
 1559.000  2.8872e-09
 1560.000  2.8644e-09
 1561.000  2.8419e-09
 1562.000  2.8197e-09
 1563.000  2.7978e-09
 1564.000  2.7761e-09
 1565.000  2.7546e-09
 1566.000  2.7334e-09
 1567.000  2.7125e-09
 1568.000  2.6918e-09
 1569.000  2.6713e-09
 1570.000  2.6510e-09
 1571.000  2.6310e-09
 1572.000  2.6112e-09
 1573.000  2.5917e-09
 1574.000  2.5723e-09
 1575.000  2.5532e-09
 1576.000  2.5343e-09
 1577.000  2.5156e-09
 1578.000  2.4970e-09
 1579.000  2.4787e-09
 1580.000  2.4606e-09
 1581.000  2.4427e-09
 1582.000  2.4250e-09
 1583.000  2.4075e-09
 1584.000  2.3902e-09
 1585.000  2.3730e-09
 1586.000  2.3561e-09
 1587.000  2.3393e-09
 1588.000  2.3227e-09
 1589.000  2.3063e-09
 1590.000  2.2900e-09
 1591.000  2.2740e-09
 1592.000  2.2580e-09
 1593.000  2.2423e-09
 1594.000  2.2267e-09
 1595.000  2.2113e-09
 1596.000  2.1960e-09
 1597.000  2.1809e-09
 1598.000  2.1660e-09
 1599.000  2.1512e-09
 1600.000  2.1366e-09
 1601.000  2.1221e-09
 1602.000  2.1077e-09
 1603.000  2.0935e-09
 1604.000  2.0795e-09
 1605.000  2.0656e-09
 1606.000  2.0518e-09
 1607.000  2.0381e-09
 1608.000  2.0246e-09
 1609.000  2.0113e-09
 1610.000  1.9980e-09
 1611.000  1.9849e-09
 1612.000  1.9719e-09
 1613.000  1.9591e-09
 1614.000  1.9463e-09
 1615.000  1.9337e-09
 1616.000  1.9213e-09
 1617.000  1.9089e-09
 1618.000  1.8967e-09
 1619.000  1.8845e-09
 1620.000  1.8725e-09
 1621.000  1.8606e-09
 1622.000  1.8488e-09
 1623.000  1.8372e-09
 1624.000  1.8256e-09
 1625.000  1.8142e-09
 1626.000  1.8028e-09
 1627.000  1.7916e-09
 1628.000  1.7804e-09
 1629.000  1.7694e-09
 1630.000  1.7585e-09
 1631.000  1.7476e-09
 1632.000  1.7369e-09
 1633.000  1.7263e-09
 1634.000  1.7158e-09
 1635.000  1.7053e-09
 1636.000  1.6950e-09
 1637.000  1.6847e-09
 1638.000  1.6746e-09
 1639.000  1.6645e-09
 1640.000  1.6545e-09
 1641.000  1.6447e-09
 1642.000  1.6349e-09
 1643.000  1.6252e-09
 1644.000  1.6155e-09
 1645.000  1.6060e-09
 1646.000  1.5965e-09
 1647.000  1.5872e-09
 1648.000  1.5779e-09
 1649.000  1.5687e-09
 1650.000  1.5596e-09
 1651.000  1.5505e-09
 1652.000  1.5415e-09
 1653.000  1.5327e-09
 1654.000  1.5238e-09
 1655.000  1.5151e-09
 1656.000  1.5064e-09
 1657.000  1.4978e-09
 1658.000  1.4893e-09
 1659.000  1.4809e-09
 1660.000  1.4725e-09
 1661.000  1.4642e-09
 1662.000  1.4560e-09
 1663.000  1.4478e-09
 1664.000  1.4397e-09
 1665.000  1.4317e-09
 1666.000  1.4237e-09
 1667.000  1.4159e-09
 1668.000  1.4080e-09
 1669.000  1.4003e-09
 1670.000  1.3926e-09
 1671.000  1.3849e-09
 1672.000  1.3774e-09
 1673.000  1.3698e-09
 1674.000  1.3624e-09
 1675.000  1.3550e-09
 1676.000  1.3477e-09
 1677.000  1.3404e-09
 1678.000  1.3332e-09
 1679.000  1.3260e-09
 1680.000  1.3190e-09
 1681.000  1.3119e-09
 1682.000  1.3049e-09
 1683.000  1.2980e-09
 1684.000  1.2911e-09
 1685.000  1.2843e-09
 1686.000  1.2776e-09
 1687.000  1.2708e-09
 1688.000  1.2642e-09
 1689.000  1.2576e-09
 1690.000  1.2510e-09
 1691.000  1.2445e-09
 1692.000  1.2381e-09
 1693.000  1.2317e-09
 1694.000  1.2253e-09
 1695.000  1.2190e-09
 1696.000  1.2128e-09
 1697.000  1.2065e-09
 1698.000  1.2004e-09
 1699.000  1.1943e-09
 1700.000  1.1882e-09
 1701.000  1.1822e-09
 1702.000  1.1762e-09
 1703.000  1.1703e-09
 1704.000  1.1644e-09
 1705.000  1.1586e-09
 1706.000  1.1528e-09
 1707.000  1.1470e-09
 1708.000  1.1413e-09
 1709.000  1.1356e-09
 1710.000  1.1300e-09
 1711.000  1.1244e-09
 1712.000  1.1189e-09
 1713.000  1.1134e-09
 1714.000  1.1079e-09
 1715.000  1.1025e-09
 1716.000  1.0971e-09
 1717.000  1.0918e-09
 1718.000  1.0865e-09
 1719.000  1.0812e-09
 1720.000  1.0760e-09
 1721.000  1.0708e-09
 1722.000  1.0656e-09
 1723.000  1.0605e-09
 1724.000  1.0555e-09
 1725.000  1.0504e-09
 1726.000  1.0454e-09
 1727.000  1.0404e-09
 1728.000  1.0355e-09
 1729.000  1.0306e-09
 1730.000  1.0257e-09
 1731.000  1.0209e-09
 1732.000  1.0161e-09
 1733.000  1.0114e-09
 1734.000  1.0066e-09
 1735.000  1.0019e-09
 1736.000  9.9726e-10
 1737.000  9.9263e-10
 1738.000  9.8803e-10
 1739.000  9.8347e-10
 1740.000  9.7893e-10
 1741.000  9.7443e-10
 1742.000  9.6996e-10
 1743.000  9.6552e-10
 1744.000  9.6110e-10
 1745.000  9.5672e-10
 1746.000  9.5237e-10
 1747.000  9.4805e-10
 1748.000  9.4376e-10
 1749.000  9.3949e-10
 1750.000  9.3526e-10
 1751.000  9.3105e-10
 1752.000  9.2688e-10
 1753.000  9.2273e-10
 1754.000  9.1860e-10
 1755.000  9.1451e-10
 1756.000  9.1044e-10
 1757.000  9.0640e-10
 1758.000  9.0239e-10
 1759.000  8.9840e-10
 1760.000  8.9444e-10
 1761.000  8.9051e-10
 1762.000  8.8660e-10
 1763.000  8.8272e-10
 1764.000  8.7886e-10
 1765.000  8.7503e-10
 1766.000  8.7122e-10
 1767.000  8.6744e-10
 1768.000  8.6368e-10
 1769.000  8.5995e-10
 1770.000  8.5624e-10
 1771.000  8.5256e-10
 1772.000  8.4890e-10
 1773.000  8.4526e-10
 1774.000  8.4164e-10
 1775.000  8.3805e-10
 1776.000  8.3448e-10
 1777.000  8.3094e-10
 1778.000  8.2742e-10
 1779.000  8.2391e-10
 1780.000  8.2044e-10
 1781.000  8.1698e-10
 1782.000  8.1354e-10
 1783.000  8.1013e-10
 1784.000  8.0674e-10
 1785.000  8.0337e-10
 1786.000  8.0002e-10
 1787.000  7.9669e-10
 1788.000  7.9338e-10
 1789.000  7.9010e-10
 1790.000  7.8683e-10
 1791.000  7.8358e-10
 1792.000  7.8036e-10
 1793.000  7.7715e-10
 1794.000  7.7396e-10
 1795.000  7.7080e-10
 1796.000  7.6765e-10
 1797.000  7.6452e-10
 1798.000  7.6141e-10
 1799.000  7.5832e-10
 1800.000  7.5525e-10
 1801.000  7.5219e-10
 1802.000  7.4916e-10
 1803.000  7.4614e-10
 1804.000  7.4314e-10
 1805.000  7.4016e-10
 1806.000  7.3720e-10
 1807.000  7.3426e-10
 1808.000  7.3133e-10
 1809.000  7.2842e-10
 1810.000  7.2553e-10
 1811.000  7.2265e-10
 1812.000  7.1979e-10
 1813.000  7.1695e-10
 1814.000  7.1413e-10
 1815.000  7.1132e-10
 1816.000  7.0853e-10
 1817.000  7.0576e-10
 1818.000  7.0300e-10
 1819.000  7.0025e-10
 1820.000  6.9753e-10
 1821.000  6.9482e-10
 1822.000  6.9212e-10
 1823.000  6.8944e-10
 1824.000  6.8678e-10
 1825.000  6.8413e-10
 1826.000  6.8150e-10
 1827.000  6.7888e-10
 1828.000  6.7628e-10
 1829.000  6.7369e-10
 1830.000  6.7112e-10
 1831.000  6.6856e-10
 1832.000  6.6602e-10
 1833.000  6.6349e-10
 1834.000  6.6097e-10
 1835.000  6.5847e-10
 1836.000  6.5599e-10
 1837.000  6.5351e-10
 1838.000  6.5106e-10
 1839.000  6.4861e-10
 1840.000  6.4618e-10
 1841.000  6.4376e-10
 1842.000  6.4136e-10
 1843.000  6.3897e-10
 1844.000  6.3659e-10
 1845.000  6.3423e-10
 1846.000  6.3188e-10
 1847.000  6.2954e-10
 1848.000  6.2722e-10
 1849.000  6.2491e-10
 1850.000  6.2261e-10
 1851.000  6.2032e-10
 1852.000  6.1805e-10
 1853.000  6.1579e-10
 1854.000  6.1354e-10
 1855.000  6.1130e-10
 1856.000  6.0908e-10
 1857.000  6.0687e-10
 1858.000  6.0467e-10
 1859.000  6.0248e-10
 1860.000  6.0030e-10
 1861.000  5.9814e-10
 1862.000  5.9598e-10
 1863.000  5.9384e-10
 1864.000  5.9171e-10
 1865.000  5.8960e-10
 1866.000  5.8749e-10
 1867.000  5.8539e-10
 1868.000  5.8331e-10
 1869.000  5.8124e-10
 1870.000  5.7917e-10
 1871.000  5.7712e-10
 1872.000  5.7508e-10
 1873.000  5.7305e-10
 1874.000  5.7103e-10
 1875.000  5.6902e-10
 1876.000  5.6703e-10
 1877.000  5.6504e-10
 1878.000  5.6306e-10
 1879.000  5.6110e-10
 1880.000  5.5914e-10
 1881.000  5.5719e-10
 1882.000  5.5526e-10
 1883.000  5.5333e-10
 1884.000  5.5142e-10
 1885.000  5.4951e-10
 1886.000  5.4762e-10
 1887.000  5.4573e-10
 1888.000  5.4385e-10
 1889.000  5.4199e-10
 1890.000  5.4013e-10
 1891.000  5.3828e-10
 1892.000  5.3644e-10
 1893.000  5.3461e-10
 1894.000  5.3279e-10
 1895.000  5.3098e-10
 1896.000  5.2918e-10
 1897.000  5.2739e-10
 1898.000  5.2561e-10
 1899.000  5.2384e-10
 1900.000  5.2207e-10
 1901.000  5.2032e-10
 1902.000  5.1857e-10
 1903.000  5.1683e-10
 1904.000  5.1510e-10
 1905.000  5.1338e-10
 1906.000  5.1167e-10
 1907.000  5.0996e-10
 1908.000  5.0827e-10
 1909.000  5.0658e-10
 1910.000  5.0490e-10
 1911.000  5.0323e-10
 1912.000  5.0157e-10
 1913.000  4.9992e-10
 1914.000  4.9827e-10
 1915.000  4.9664e-10
 1916.000  4.9501e-10
 1917.000  4.9339e-10
 1918.000  4.9177e-10
 1919.000  4.9017e-10
 1920.000  4.8857e-10
 1921.000  4.8698e-10
 1922.000  4.8540e-10
 1923.000  4.8382e-10
 1924.000  4.8226e-10
 1925.000  4.8070e-10
 1926.000  4.7915e-10
 1927.000  4.7760e-10
 1928.000  4.7607e-10
 1929.000  4.7454e-10
 1930.000  4.7301e-10
 1931.000  4.7150e-10
 1932.000  4.6999e-10
 1933.000  4.6849e-10
 1934.000  4.6700e-10
 1935.000  4.6551e-10
 1936.000  4.6404e-10
 1937.000  4.6256e-10
 1938.000  4.6110e-10
 1939.000  4.5964e-10
 1940.000  4.5819e-10
 1941.000  4.5675e-10
 1942.000  4.5531e-10
 1943.000  4.5388e-10
 1944.000  4.5246e-10
 1945.000  4.5104e-10
 1946.000  4.4963e-10
 1947.000  4.4823e-10
 1948.000  4.4683e-10
 1949.000  4.4544e-10
 1950.000  4.4405e-10
 1951.000  4.4268e-10
 1952.000  4.4131e-10
 1953.000  4.3994e-10
 1954.000  4.3858e-10
 1955.000  4.3723e-10
 1956.000  4.3588e-10
 1957.000  4.3454e-10
 1958.000  4.3321e-10
 1959.000  4.3188e-10
 1960.000  4.3056e-10
 1961.000  4.2925e-10
 1962.000  4.2794e-10
 1963.000  4.2663e-10
 1964.000  4.2534e-10
 1965.000  4.2404e-10
 1966.000  4.2276e-10
 1967.000  4.2148e-10
 1968.000  4.2020e-10
 1969.000  4.1894e-10
 1970.000  4.1767e-10
 1971.000  4.1642e-10
 1972.000  4.1517e-10
 1973.000  4.1392e-10
 1974.000  4.1268e-10
 1975.000  4.1145e-10
 1976.000  4.1022e-10
 1977.000  4.0899e-10
 1978.000  4.0778e-10
 1979.000  4.0656e-10
 1980.000  4.0536e-10
 1981.000  4.0415e-10
 1982.000  4.0296e-10
 1983.000  4.0177e-10
 1984.000  4.0058e-10
 1985.000  3.9940e-10
 1986.000  3.9823e-10
 1987.000  3.9706e-10
 1988.000  3.9589e-10
 1989.000  3.9473e-10
 1990.000  3.9358e-10
 1991.000  3.9243e-10
 1992.000  3.9128e-10
 1993.000  3.9014e-10
 1994.000  3.8901e-10
 1995.000  3.8788e-10
 1996.000  3.8675e-10
 1997.000  3.8563e-10
 1998.000  3.8452e-10
 1999.000  3.8341e-10
 2000.000  3.8230e-10
 2001.000  3.8120e-10
 2002.000  3.8011e-10
 2003.000  3.7901e-10
 2004.000  3.7793e-10
 2005.000  3.7685e-10
 2006.000  3.7577e-10
 2007.000  3.7470e-10
 2008.000  3.7363e-10
 2009.000  3.7256e-10
 2010.000  3.7150e-10
 2011.000  3.7045e-10
 2012.000  3.6940e-10
 2013.000  3.6836e-10
 2014.000  3.6731e-10
 2015.000  3.6628e-10
 2016.000  3.6525e-10
 2017.000  3.6422e-10
 2018.000  3.6319e-10
 2019.000  3.6217e-10
 2020.000  3.6116e-10
 2021.000  3.6015e-10
 2022.000  3.5914e-10
 2023.000  3.5814e-10
 2024.000  3.5714e-10
 2025.000  3.5615e-10
 2026.000  3.5516e-10
 2027.000  3.5417e-10
 2028.000  3.5319e-10
 2029.000  3.5221e-10
 2030.000  3.5124e-10
 2031.000  3.5027e-10
 2032.000  3.4930e-10
 2033.000  3.4834e-10
 2034.000  3.4739e-10
 2035.000  3.4643e-10
 2036.000  3.4548e-10
 2037.000  3.4454e-10
 2038.000  3.4360e-10
 2039.000  3.4266e-10
 2040.000  3.4172e-10
 2041.000  3.4079e-10
 2042.000  3.3987e-10
 2043.000  3.3894e-10
 2044.000  3.3802e-10
 2045.000  3.3711e-10
 2046.000  3.3620e-10
 2047.000  3.3529e-10
 2048.000  3.3439e-10
 2049.000  3.3349e-10
 2050.000  3.3259e-10
 2051.000  3.3170e-10
 2052.000  3.3081e-10
 2053.000  3.2992e-10
 2054.000  3.2904e-10
 2055.000  3.2816e-10
 2056.000  3.2728e-10
 2057.000  3.2641e-10
 2058.000  3.2554e-10
 2059.000  3.2468e-10
 2060.000  3.2381e-10
 2061.000  3.2296e-10
 2062.000  3.2210e-10
 2063.000  3.2125e-10
 2064.000  3.2040e-10
 2065.000  3.1956e-10
 2066.000  3.1872e-10
 2067.000  3.1788e-10
 2068.000  3.1704e-10
 2069.000  3.1621e-10
 2070.000  3.1538e-10
 2071.000  3.1456e-10
 2072.000  3.1374e-10
 2073.000  3.1292e-10
 2074.000  3.1210e-10
 2075.000  3.1129e-10
 2076.000  3.1048e-10
 2077.000  3.0968e-10
 2078.000  3.0887e-10
 2079.000  3.0807e-10
 2080.000  3.0728e-10
 2081.000  3.0648e-10
 2082.000  3.0569e-10
 2083.000  3.0491e-10
 2084.000  3.0412e-10
 2085.000  3.0334e-10
 2086.000  3.0256e-10
 2087.000  3.0179e-10
 2088.000  3.0102e-10
 2089.000  3.0025e-10
 2090.000  2.9948e-10
 2091.000  2.9872e-10
 2092.000  2.9796e-10
 2093.000  2.9720e-10
 2094.000  2.9644e-10
 2095.000  2.9569e-10
 2096.000  2.9494e-10
 2097.000  2.9420e-10
 2098.000  2.9345e-10
 2099.000  2.9271e-10
 2100.000  2.9198e-10
 2101.000  2.9124e-10
 2102.000  2.9051e-10
 2103.000  2.8978e-10
 2104.000  2.8905e-10
 2105.000  2.8833e-10
 2106.000  2.8761e-10
 2107.000  2.8689e-10
 2108.000  2.8617e-10
 2109.000  2.8546e-10
 2110.000  2.8475e-10
 2111.000  2.8404e-10
 2112.000  2.8334e-10
 2113.000  2.8264e-10
 2114.000  2.8194e-10
 2115.000  2.8124e-10
 2116.000  2.8054e-10
 2117.000  2.7985e-10
 2118.000  2.7916e-10
 2119.000  2.7847e-10
 2120.000  2.7779e-10
 2121.000  2.7711e-10
 2122.000  2.7643e-10
 2123.000  2.7575e-10
 2124.000  2.7508e-10
 2125.000  2.7441e-10
 2126.000  2.7374e-10
 2127.000  2.7307e-10
 2128.000  2.7240e-10
 2129.000  2.7174e-10
 2130.000  2.7108e-10
 2131.000  2.7042e-10
 2132.000  2.6977e-10
 2133.000  2.6912e-10
 2134.000  2.6847e-10
 2135.000  2.6782e-10
 2136.000  2.6717e-10
 2137.000  2.6653e-10
 2138.000  2.6589e-10
 2139.000  2.6525e-10
 2140.000  2.6461e-10
 2141.000  2.6398e-10
 2142.000  2.6335e-10
 2143.000  2.6272e-10
 2144.000  2.6209e-10
 2145.000  2.6147e-10
 2146.000  2.6084e-10
 2147.000  2.6022e-10
 2148.000  2.5960e-10
 2149.000  2.5899e-10
 2150.000  2.5837e-10
 2151.000  2.5776e-10
 2152.000  2.5715e-10
 2153.000  2.5654e-10
 2154.000  2.5594e-10
 2155.000  2.5534e-10
 2156.000  2.5473e-10
 2157.000  2.5414e-10
 2158.000  2.5354e-10
 2159.000  2.5294e-10
 2160.000  2.5235e-10
 2161.000  2.5176e-10
 2162.000  2.5117e-10
 2163.000  2.5059e-10
 2164.000  2.5000e-10
 2165.000  2.4942e-10
 2166.000  2.4884e-10
 2167.000  2.4826e-10
 2168.000  2.4768e-10
 2169.000  2.4711e-10
 2170.000  2.4654e-10
 2171.000  2.4597e-10
 2172.000  2.4540e-10
 2173.000  2.4483e-10
 2174.000  2.4427e-10
 2175.000  2.4371e-10
 2176.000  2.4315e-10
 2177.000  2.4259e-10
 2178.000  2.4203e-10
 2179.000  2.4148e-10
 2180.000  2.4092e-10
 2181.000  2.4037e-10
 2182.000  2.3982e-10
 2183.000  2.3928e-10
 2184.000  2.3873e-10
 2185.000  2.3819e-10
 2186.000  2.3765e-10
 2187.000  2.3711e-10
 2188.000  2.3657e-10
 2189.000  2.3603e-10
 2190.000  2.3550e-10
 2191.000  2.3497e-10
 2192.000  2.3443e-10
 2193.000  2.3391e-10
 2194.000  2.3338e-10
 2195.000  2.3285e-10
 2196.000  2.3233e-10
 2197.000  2.3181e-10
 2198.000  2.3129e-10
 2199.000  2.3077e-10
 2200.000  2.3025e-10
 2201.000  2.2974e-10
 2202.000  2.2923e-10
 2203.000  2.2871e-10
 2204.000  2.2821e-10
 2205.000  2.2770e-10
 2206.000  2.2719e-10
 2207.000  2.2669e-10
 2208.000  2.2618e-10
 2209.000  2.2568e-10
 2210.000  2.2518e-10
 2211.000  2.2469e-10
 2212.000  2.2419e-10
 2213.000  2.2369e-10
 2214.000  2.2320e-10
 2215.000  2.2271e-10
 2216.000  2.2222e-10
 2217.000  2.2173e-10
 2218.000  2.2125e-10
 2219.000  2.2076e-10
 2220.000  2.2028e-10
 2221.000  2.1980e-10
 2222.000  2.1932e-10
 2223.000  2.1884e-10
 2224.000  2.1836e-10
 2225.000  2.1789e-10
 2226.000  2.1741e-10
 2227.000  2.1694e-10
 2228.000  2.1647e-10
 2229.000  2.1600e-10
 2230.000  2.1553e-10
 2231.000  2.1506e-10
 2232.000  2.1460e-10
 2233.000  2.1414e-10
 2234.000  2.1368e-10
 2235.000  2.1322e-10
 2236.000  2.1276e-10
 2237.000  2.1230e-10
 2238.000  2.1184e-10
 2239.000  2.1139e-10
 2240.000  2.1094e-10
 2241.000  2.1048e-10
 2242.000  2.1003e-10
 2243.000  2.0959e-10
 2244.000  2.0914e-10
 2245.000  2.0869e-10
 2246.000  2.0825e-10
 2247.000  2.0781e-10
 2248.000  2.0737e-10
 2249.000  2.0693e-10
 2250.000  2.0649e-10
 2251.000  2.0605e-10
 2252.000  2.0561e-10
 2253.000  2.0518e-10
 2254.000  2.0475e-10
 2255.000  2.0431e-10
 2256.000  2.0388e-10
 2257.000  2.0346e-10
 2258.000  2.0303e-10
 2259.000  2.0260e-10
 2260.000  2.0218e-10
 2261.000  2.0175e-10
 2262.000  2.0133e-10
 2263.000  2.0091e-10
 2264.000  2.0049e-10
 2265.000  2.0007e-10
 2266.000  1.9965e-10
 2267.000  1.9924e-10
 2268.000  1.9882e-10
 2269.000  1.9841e-10
 2270.000  1.9800e-10
 2271.000  1.9759e-10
 2272.000  1.9718e-10
 2273.000  1.9677e-10
 2274.000  1.9637e-10
 2275.000  1.9596e-10
 2276.000  1.9556e-10
 2277.000  1.9515e-10
 2278.000  1.9475e-10
 2279.000  1.9435e-10
 2280.000  1.9395e-10
 2281.000  1.9355e-10
 2282.000  1.9316e-10
 2283.000  1.9276e-10
 2284.000  1.9237e-10
 2285.000  1.9197e-10
 2286.000  1.9158e-10
 2287.000  1.9119e-10
 2288.000  1.9080e-10
 2289.000  1.9041e-10
 2290.000  1.9003e-10
 2291.000  1.8964e-10
 2292.000  1.8926e-10
 2293.000  1.8887e-10
 2294.000  1.8849e-10
 2295.000  1.8811e-10
 2296.000  1.8773e-10
 2297.000  1.8735e-10
 2298.000  1.8697e-10
 2299.000  1.8659e-10
 2300.000  1.8622e-10
 2301.000  1.8584e-10
 2302.000  1.8547e-10
 2303.000  1.8510e-10
 2304.000  1.8473e-10
 2305.000  1.8436e-10
 2306.000  1.8399e-10
 2307.000  1.8362e-10
 2308.000  1.8325e-10
 2309.000  1.8289e-10
 2310.000  1.8252e-10
 2311.000  1.8216e-10
 2312.000  1.8180e-10
 2313.000  1.8144e-10
 2314.000  1.8108e-10
 2315.000  1.8072e-10
 2316.000  1.8036e-10
 2317.000  1.8000e-10
 2318.000  1.7965e-10
 2319.000  1.7929e-10
 2320.000  1.7894e-10
 2321.000  1.7859e-10
 2322.000  1.7823e-10
 2323.000  1.7788e-10
 2324.000  1.7753e-10
 2325.000  1.7719e-10
 2326.000  1.7684e-10
 2327.000  1.7649e-10
 2328.000  1.7615e-10
 2329.000  1.7580e-10
 2330.000  1.7546e-10
 2331.000  1.7512e-10
 2332.000  1.7477e-10
 2333.000  1.7443e-10
 2334.000  1.7409e-10
 2335.000  1.7376e-10
 2336.000  1.7342e-10
 2337.000  1.7308e-10
 2338.000  1.7275e-10
 2339.000  1.7241e-10
 2340.000  1.7208e-10
 2341.000  1.7175e-10
 2342.000  1.7141e-10
 2343.000  1.7108e-10
 2344.000  1.7075e-10
 2345.000  1.7043e-10
 2346.000  1.7010e-10
 2347.000  1.6977e-10
 2348.000  1.6944e-10
 2349.000  1.6912e-10
 2350.000  1.6880e-10
 2351.000  1.6847e-10
 2352.000  1.6815e-10
 2353.000  1.6783e-10
 2354.000  1.6751e-10
 2355.000  1.6719e-10
 2356.000  1.6687e-10
 2357.000  1.6656e-10
 2358.000  1.6624e-10
 2359.000  1.6592e-10
 2360.000  1.6561e-10
 2361.000  1.6529e-10
 2362.000  1.6498e-10
 2363.000  1.6467e-10
 2364.000  1.6436e-10
 2365.000  1.6405e-10
 2366.000  1.6374e-10
 2367.000  1.6343e-10
 2368.000  1.6312e-10
 2369.000  1.6281e-10
 2370.000  1.6250e-10
 2371.000  1.6220e-10
 2372.000  1.6189e-10
 2373.000  1.6159e-10
 2374.000  1.6129e-10
 2375.000  1.6099e-10
 2376.000  1.6068e-10
 2377.000  1.6038e-10
 2378.000  1.6009e-10
 2379.000  1.5979e-10
 2380.000  1.5949e-10
 2381.000  1.5919e-10
 2382.000  1.5890e-10
 2383.000  1.5860e-10
 2384.000  1.5831e-10
 2385.000  1.5801e-10
 2386.000  1.5772e-10
 2387.000  1.5743e-10
 2388.000  1.5714e-10
 2389.000  1.5685e-10
 2390.000  1.5656e-10
 2391.000  1.5627e-10
 2392.000  1.5598e-10
 2393.000  1.5569e-10
 2394.000  1.5541e-10
 2395.000  1.5512e-10
 2396.000  1.5484e-10
 2397.000  1.5455e-10
 2398.000  1.5427e-10
 2399.000  1.5399e-10
 2400.000  1.5371e-10
 2401.000  1.5342e-10
 2402.000  1.5314e-10
 2403.000  1.5287e-10
 2404.000  1.5259e-10
 2405.000  1.5231e-10
 2406.000  1.5203e-10
 2407.000  1.5176e-10
 2408.000  1.5148e-10
 2409.000  1.5121e-10
 2410.000  1.5093e-10
 2411.000  1.5066e-10
 2412.000  1.5039e-10
 2413.000  1.5011e-10
 2414.000  1.4984e-10
 2415.000  1.4957e-10
 2416.000  1.4930e-10
 2417.000  1.4903e-10
 2418.000  1.4877e-10
 2419.000  1.4850e-10
 2420.000  1.4823e-10
 2421.000  1.4797e-10
 2422.000  1.4770e-10
 2423.000  1.4744e-10
 2424.000  1.4717e-10
 2425.000  1.4691e-10
 2426.000  1.4665e-10
 2427.000  1.4638e-10
 2428.000  1.4612e-10
 2429.000  1.4586e-10
 2430.000  1.4560e-10
 2431.000  1.4534e-10
 2432.000  1.4509e-10
 2433.000  1.4483e-10
 2434.000  1.4457e-10
 2435.000  1.4432e-10
 2436.000  1.4406e-10
 2437.000  1.4381e-10
 2438.000  1.4355e-10
 2439.000  1.4330e-10
 2440.000  1.4304e-10
 2441.000  1.4279e-10
 2442.000  1.4254e-10
 2443.000  1.4229e-10
 2444.000  1.4204e-10
 2445.000  1.4179e-10
 2446.000  1.4154e-10
 2447.000  1.4129e-10
 2448.000  1.4105e-10
 2449.000  1.4080e-10
 2450.000  1.4055e-10
 2451.000  1.4031e-10
 2452.000  1.4006e-10
 2453.000  1.3982e-10
 2454.000  1.3957e-10
 2455.000  1.3933e-10
 2456.000  1.3909e-10
 2457.000  1.3885e-10
 2458.000  1.3861e-10
 2459.000  1.3837e-10
 2460.000  1.3813e-10
 2461.000  1.3789e-10
 2462.000  1.3765e-10
 2463.000  1.3741e-10
 2464.000  1.3717e-10
 2465.000  1.3694e-10
 2466.000  1.3670e-10
 2467.000  1.3646e-10
 2468.000  1.3623e-10
 2469.000  1.3599e-10
 2470.000  1.3576e-10
 2471.000  1.3553e-10
 2472.000  1.3529e-10
 2473.000  1.3506e-10
 2474.000  1.3483e-10
 2475.000  1.3460e-10
 2476.000  1.3437e-10
 2477.000  1.3414e-10
 2478.000  1.3391e-10
 2479.000  1.3368e-10
 2480.000  1.3346e-10
 2481.000  1.3323e-10
 2482.000  1.3300e-10
 2483.000  1.3278e-10
 2484.000  1.3255e-10
 2485.000  1.3233e-10
 2486.000  1.3210e-10
 2487.000  1.3188e-10
 2488.000  1.3165e-10
 2489.000  1.3143e-10
 2490.000  1.3121e-10
 2491.000  1.3099e-10
 2492.000  1.3077e-10
 2493.000  1.3055e-10
 2494.000  1.3033e-10
 2495.000  1.3011e-10
 2496.000  1.2989e-10
 2497.000  1.2967e-10
 2498.000  1.2945e-10
 2499.000  1.2924e-10
 2500.000  1.2902e-10
